        Au                                                                      
 
        Constituents (Atomic Number:Fraction by Weight)
          79:1.00000
 
        Cross Sections and Attenuation Coefficients
        (Note that 1 b(arn) = 10**(-24) cm2)
 
         PHOTON       SCATTERING       PHOTO-     PAIR PRODUCTION    TOTAL ATTENUATION
         ENERGY   COHERENT  INCOHER.  ELECTRIC     IN        IN        WITH    WITHOUT
                                     ABSORPTION  NUCLEAR  ELECTRON   COHERENT  COHERENT
                                                  FIELD     FIELD     SCATT.    SCATT.
          (MeV)   (b/atom)  (b/atom)  (b/atom)  (b/atom)  (b/atom)    (cm2/g)   (cm2/g)
 
        1.000E-03 4.012E+03 1.069E+00 1.518E+06 0.000E+00 0.000E+00 4.653E+03 4.641E+03
        1.500E-03 3.862E+03 1.984E+00 6.793E+05 0.000E+00 0.000E+00 2.089E+03 2.077E+03
        2.000E-03 3.685E+03 2.929E+00 3.681E+05 0.000E+00 0.000E+00 1.137E+03 1.125E+03
        2.206E-03 3.606E+03 3.317E+00 2.969E+05 0.000E+00 0.000E+00 9.188E+02 9.078E+02
 
 79 M5  2.206E-03 3.606E+03 3.317E+00 3.214E+05 0.000E+00 0.000E+00 9.937E+02 9.827E+02
        2.248E-03 3.590E+03 3.396E+00 4.825E+05 0.000E+00 0.000E+00 1.486E+03 1.475E+03
        2.291E-03 3.573E+03 3.477E+00 7.240E+05 0.000E+00 0.000E+00 2.225E+03 2.214E+03
 
 79 M4  2.291E-03 3.573E+03 3.477E+00 7.675E+05 0.000E+00 0.000E+00 2.358E+03 2.347E+03
        2.507E-03 3.493E+03 3.876E+00 7.416E+05 0.000E+00 0.000E+00 2.278E+03 2.267E+03
        2.743E-03 3.405E+03 4.306E+00 7.167E+05 0.000E+00 0.000E+00 2.202E+03 2.191E+03
 
 79 M3  2.743E-03 3.405E+03 4.306E+00 8.271E+05 0.000E+00 0.000E+00 2.539E+03 2.529E+03
        3.000E-03 3.307E+03 4.772E+00 6.670E+05 0.000E+00 0.000E+00 2.049E+03 2.039E+03
        3.148E-03 3.251E+03 5.037E+00 5.927E+05 0.000E+00 0.000E+00 1.822E+03 1.812E+03
 
 79 M2  3.148E-03 3.251E+03 5.037E+00 6.289E+05 0.000E+00 0.000E+00 1.933E+03 1.923E+03
        3.283E-03 3.201E+03 5.275E+00 5.691E+05 0.000E+00 0.000E+00 1.750E+03 1.740E+03
        3.425E-03 3.150E+03 5.520E+00 5.152E+05 0.000E+00 0.000E+00 1.585E+03 1.575E+03
 
 79 M1  3.425E-03 3.150E+03 5.520E+00 5.372E+05 0.000E+00 0.000E+00 1.652E+03 1.642E+03
        4.000E-03 2.946E+03 6.511E+00 3.711E+05 0.000E+00 0.000E+00 1.144E+03 1.135E+03
        5.000E-03 2.627E+03 8.174E+00 2.152E+05 0.000E+00 0.000E+00 6.660E+02 6.580E+02
        6.000E-03 2.351E+03 9.770E+00 1.367E+05 0.000E+00 0.000E+00 4.252E+02 4.180E+02
        8.000E-03 1.912E+03 1.268E+01 6.584E+04 0.000E+00 0.000E+00 2.072E+02 2.013E+02
        1.000E-02 1.582E+03 1.514E+01 3.704E+04 0.000E+00 0.000E+00 1.181E+02 1.133E+02
        1.192E-02 1.335E+03 1.714E+01 2.345E+04 0.000E+00 0.000E+00 7.583E+01 7.175E+01
 
 79 L3  1.192E-02 1.335E+03 1.714E+01 5.982E+04 0.000E+00 0.000E+00 1.870E+02 1.829E+02
        1.279E-02 1.240E+03 1.793E+01 4.940E+04 0.000E+00 0.000E+00 1.549E+02 1.511E+02
        1.373E-02 1.148E+03 1.872E+01 4.080E+04 0.000E+00 0.000E+00 1.283E+02 1.248E+02
 
 79 L2  1.373E-02 1.148E+03 1.872E+01 5.654E+04 0.000E+00 0.000E+00 1.764E+02 1.729E+02
        1.404E-02 1.120E+03 1.897E+01 5.361E+04 0.000E+00 0.000E+00 1.674E+02 1.640E+02
        1.435E-02 1.093E+03 1.923E+01 5.084E+04 0.000E+00 0.000E+00 1.588E+02 1.555E+02
 
 79 L1  1.435E-02 1.093E+03 1.923E+01 5.874E+04 0.000E+00 0.000E+00 1.830E+02 1.797E+02
        1.500E-02 1.040E+03 1.974E+01 5.249E+04 0.000E+00 0.000E+00 1.637E+02 1.605E+02
        2.000E-02 7.332E+02 2.307E+01 2.502E+04 0.000E+00 0.000E+00 7.881E+01 7.657E+01
        3.000E-02 4.327E+02 2.756E+01 8.541E+03 0.000E+00 0.000E+00 2.752E+01 2.620E+01
        4.000E-02 2.878E+02 3.018E+01 3.928E+03 0.000E+00 0.000E+00 1.298E+01 1.210E+01
        5.000E-02 2.041E+02 3.167E+01 2.138E+03 0.000E+00 0.000E+00 7.258E+00 6.634E+00
        6.000E-02 1.528E+02 3.250E+01 1.296E+03 0.000E+00 0.000E+00 4.529E+00 4.062E+00
 
        Au                                                                      
 
        Constituents (Atomic Number:Fraction by Weight)
          79:1.00000
 
        Cross Sections and Attenuation Coefficients
        (Note that 1 b(arn) = 10**(-24) cm2)
 
         PHOTON       SCATTERING       PHOTO-     PAIR PRODUCTION    TOTAL ATTENUATION
         ENERGY   COHERENT  INCOHER.  ELECTRIC     IN        IN        WITH    WITHOUT
                                     ABSORPTION  NUCLEAR  ELECTRON   COHERENT  COHERENT
                                                  FIELD     FIELD     SCATT.    SCATT.
          (MeV)   (b/atom)  (b/atom)  (b/atom)  (b/atom)  (b/atom)    (cm2/g)   (cm2/g)
 
        8.000E-02 9.601E+01 3.308E+01 5.856E+02 0.000E+00 0.000E+00 2.185E+00 1.892E+00
        8.072E-02 9.459E+01 3.309E+01 5.711E+02 0.000E+00 0.000E+00 2.136E+00 1.847E+00
 
 79 K   8.072E-02 9.459E+01 3.309E+01 2.784E+03 0.000E+00 0.000E+00 8.902E+00 8.613E+00
        1.000E-01 6.620E+01 3.296E+01 1.588E+03 0.000E+00 0.000E+00 5.158E+00 4.956E+00
        1.500E-01 3.253E+01 3.155E+01 5.441E+02 0.000E+00 0.000E+00 1.859E+00 1.760E+00
        2.000E-01 1.940E+01 2.980E+01 2.522E+02 0.000E+00 0.000E+00 9.215E-01 8.622E-01
        3.000E-01 9.241E+00 2.668E+01 8.655E+01 0.000E+00 0.000E+00 3.744E-01 3.462E-01
        4.000E-01 5.391E+00 2.426E+01 4.164E+01 0.000E+00 0.000E+00 2.180E-01 2.015E-01
        5.000E-01 3.525E+00 2.234E+01 2.417E+01 0.000E+00 0.000E+00 1.530E-01 1.422E-01
        6.000E-01 2.483E+00 2.078E+01 1.579E+01 0.000E+00 0.000E+00 1.194E-01 1.118E-01
        8.000E-01 1.422E+00 1.836E+01 8.357E+00 0.000E+00 0.000E+00 8.603E-02 8.169E-02
        1.000E+00 9.195E-01 1.656E+01 5.261E+00 0.000E+00 0.000E+00 6.953E-02 6.672E-02
        1.022E+00 8.811E-01 1.639E+01 5.035E+00 0.000E+00 0.000E+00 6.820E-02 6.551E-02
        1.250E+00 5.932E-01 1.484E+01 3.396E+00 1.176E-01 0.000E+00 5.793E-02 5.612E-02
        1.500E+00 4.139E-01 1.351E+01 2.420E+00 5.571E-01 0.000E+00 5.167E-02 5.041E-02
        2.000E+00 2.341E-01 1.155E+01 1.464E+00 1.698E+00 0.000E+00 4.570E-02 4.498E-02
        2.044E+00 2.242E-01 1.140E+01 1.412E+00 1.799E+00 0.000E+00 4.536E-02 4.467E-02
        3.000E+00 1.045E-01 9.096E+00 7.663E-01 3.772E+00 3.178E-03 4.202E-02 4.170E-02
        4.000E+00 5.887E-02 7.591E+00 5.022E-01 5.462E+00 1.295E-02 4.166E-02 4.148E-02
        5.000E+00 3.771E-02 6.558E+00 3.683E-01 6.876E+00 2.576E-02 4.239E-02 4.228E-02
        6.000E+00 2.620E-02 5.797E+00 2.888E-01 8.094E+00 3.949E-02 4.355E-02 4.347E-02
        7.000E+00 1.925E-02 5.211E+00 2.366E-01 9.167E+00 5.315E-02 4.490E-02 4.485E-02
        8.000E+00 1.474E-02 4.743E+00 2.000E-01 1.013E+01 6.634E-02 4.633E-02 4.629E-02
        9.000E+00 1.165E-02 4.360E+00 1.729E-01 1.101E+01 7.894E-02 4.780E-02 4.776E-02
        1.000E+01 9.437E-03 4.040E+00 1.521E-01 1.182E+01 9.089E-02 4.926E-02 4.923E-02
        1.100E+01 7.800E-03 3.768E+00 1.357E-01 1.256E+01 1.022E-01 5.067E-02 5.065E-02
        1.200E+01 6.555E-03 3.534E+00 1.224E-01 1.326E+01 1.128E-01 5.209E-02 5.207E-02
        1.300E+01 5.585E-03 3.329E+00 1.115E-01 1.391E+01 1.228E-01 5.344E-02 5.342E-02
        1.400E+01 4.816E-03 3.150E+00 1.023E-01 1.452E+01 1.323E-01 5.476E-02 5.474E-02
        1.500E+01 4.195E-03 2.991E+00 9.451E-02 1.508E+01 1.412E-01 5.598E-02 5.597E-02
        1.600E+01 3.687E-03 2.848E+00 8.780E-02 1.561E+01 1.497E-01 5.717E-02 5.716E-02
        1.800E+01 2.914E-03 2.603E+00 7.686E-02 1.657E+01 1.655E-01 5.937E-02 5.936E-02
        2.000E+01 2.360E-03 2.400E+00 6.833E-02 1.742E+01 1.797E-01 6.136E-02 6.136E-02
        2.200E+01 1.950E-03 2.230E+00 6.148E-02 1.819E+01 1.927E-01 6.322E-02 6.321E-02
        2.400E+01 1.639E-03 2.083E+00 5.588E-02 1.889E+01 2.046E-01 6.493E-02 6.492E-02
        2.600E+01 1.396E-03 1.956E+00 5.120E-02 1.954E+01 2.156E-01 6.654E-02 6.654E-02
        2.800E+01 1.204E-03 1.846E+00 4.724E-02 2.012E+01 2.258E-01 6.800E-02 6.799E-02
        3.000E+01 1.049E-03 1.748E+00 4.385E-02 2.067E+01 2.352E-01 6.940E-02 6.939E-02
        4.000E+01 5.901E-04 1.389E+00 3.226E-02 2.289E+01 2.739E-01 7.517E-02 7.517E-02
        5.000E+01 3.776E-04 1.159E+00 2.550E-02 2.453E+01 3.030E-01 7.955E-02 7.955E-02
        6.000E+01 2.622E-04 9.988E-01 2.108E-02 2.581E+01 3.259E-01 8.303E-02 8.303E-02
        8.000E+01 1.475E-04 7.877E-01 1.565E-02 2.768E+01 3.601E-01 8.819E-02 8.819E-02
        1.000E+02 9.441E-05 6.538E-01 1.245E-02 2.901E+01 3.847E-01 9.191E-02 9.191E-02
 
        Au                                                                      
 
        Constituents (Atomic Number:Fraction by Weight)
          79:1.00000
 
        Cross Sections and Attenuation Coefficients
        (Note that 1 b(arn) = 10**(-24) cm2)
 
         PHOTON       SCATTERING       PHOTO-     PAIR PRODUCTION    TOTAL ATTENUATION
         ENERGY   COHERENT  INCOHER.  ELECTRIC     IN        IN        WITH    WITHOUT
                                     ABSORPTION  NUCLEAR  ELECTRON   COHERENT  COHERENT
                                                  FIELD     FIELD     SCATT.    SCATT.
          (MeV)   (b/atom)  (b/atom)  (b/atom)  (b/atom)  (b/atom)    (cm2/g)   (cm2/g)
 
        1.500E+02 4.196E-05 4.656E-01 8.231E-03 3.109E+01 4.248E-01 9.780E-02 9.780E-02
        2.000E+02 2.360E-05 3.651E-01 6.148E-03 3.233E+01 4.497E-01 1.014E-01 1.014E-01
        3.000E+02 1.049E-05 2.588E-01 4.082E-03 3.377E+01 4.796E-01 1.055E-01 1.055E-01
        4.000E+02 5.900E-06 2.027E-01 3.055E-03 3.459E+01 4.974E-01 1.079E-01 1.079E-01
        5.000E+02 3.776E-06 1.678E-01 2.441E-03 3.512E+01 5.094E-01 1.095E-01 1.095E-01
        6.000E+02 2.622E-06 1.436E-01 2.032E-03 3.551E+01 5.181E-01 1.106E-01 1.106E-01
        8.000E+02 1.475E-06 1.122E-01 1.523E-03 3.602E+01 5.301E-01 1.121E-01 1.121E-01
        1.000E+03 9.441E-07 9.229E-02 1.217E-03 3.635E+01 5.380E-01 1.131E-01 1.131E-01
        1.500E+03 4.196E-07 6.445E-02 8.109E-04 3.682E+01 5.497E-01 1.145E-01 1.145E-01
        2.000E+03 2.360E-07 4.988E-02 6.080E-04 3.708E+01 5.563E-01 1.152E-01 1.152E-01
        3.000E+03 1.049E-07 3.468E-02 4.051E-04 3.736E+01 5.634E-01 1.161E-01 1.161E-01
        4.000E+03 5.900E-08 2.677E-02 3.038E-04 3.751E+01 5.676E-01 1.165E-01 1.165E-01
        5.000E+03 3.776E-08 2.189E-02 2.430E-04 3.761E+01 5.701E-01 1.168E-01 1.168E-01
        6.000E+03 2.622E-08 1.856E-02 2.025E-04 3.768E+01 5.719E-01 1.170E-01 1.170E-01
        8.000E+03 1.475E-08 1.430E-02 1.518E-04 3.776E+01 5.743E-01 1.172E-01 1.172E-01
        1.000E+04 9.441E-09 1.168E-02 1.215E-04 3.782E+01 5.758E-01 1.174E-01 1.174E-01
        1.500E+04 4.196E-09 8.070E-03 8.097E-05 3.789E+01 5.778E-01 1.176E-01 1.176E-01
        2.000E+04 2.360E-09 6.204E-03 6.073E-05 3.793E+01 5.790E-01 1.178E-01 1.178E-01
        3.000E+04 1.049E-09 4.279E-03 4.048E-05 3.797E+01 5.801E-01 1.179E-01 1.179E-01
        4.000E+04 5.900E-10 3.285E-03 3.036E-05 3.800E+01 5.808E-01 1.180E-01 1.180E-01
        5.000E+04 3.776E-10 2.675E-03 2.429E-05 3.801E+01 5.812E-01 1.180E-01 1.180E-01
        6.000E+04 2.622E-10 2.261E-03 2.024E-05 3.802E+01 5.815E-01 1.180E-01 1.180E-01
        8.000E+04 1.475E-10 1.734E-03 1.518E-05 3.803E+01 5.818E-01 1.181E-01 1.181E-01
        1.000E+05 9.441E-11 1.411E-03 1.214E-05 3.804E+01 5.820E-01 1.181E-01 1.181E-01
