        F                                                                       
 
        Constituents (Atomic Number:Fraction by Weight)
           9:1.00000
 
        Cross Sections and Attenuation Coefficients
        (Note that 1 b(arn) = 10**(-24) cm2)
 
         PHOTON       SCATTERING       PHOTO-     PAIR PRODUCTION    TOTAL ATTENUATION
         ENERGY   COHERENT  INCOHER.  ELECTRIC     IN        IN        WITH    WITHOUT
                                     ABSORPTION  NUCLEAR  ELECTRON   COHERENT  COHERENT
                                                  FIELD     FIELD     SCATT.    SCATT.
          (MeV)   (b/atom)  (b/atom)  (b/atom)  (b/atom)  (b/atom)    (cm2/g)   (cm2/g)
 
        1.000E-03 5.111E+01 2.029E-01 1.782E+05 0.000E+00 0.000E+00 5.650E+03 5.649E+03
        1.500E-03 4.801E+01 4.270E-01 6.237E+04 0.000E+00 0.000E+00 1.979E+03 1.977E+03
        2.000E-03 4.427E+01 6.987E-01 2.850E+04 0.000E+00 0.000E+00 9.048E+02 9.034E+02
        3.000E-03 3.625E+01 1.293E+00 9.073E+03 0.000E+00 0.000E+00 2.888E+02 2.876E+02
        4.000E-03 2.902E+01 1.861E+00 3.931E+03 0.000E+00 0.000E+00 1.256E+02 1.247E+02
        5.000E-03 2.325E+01 2.354E+00 2.029E+03 0.000E+00 0.000E+00 6.513E+01 6.439E+01
        6.000E-03 1.886E+01 2.762E+00 1.174E+03 0.000E+00 0.000E+00 3.790E+01 3.730E+01
        8.000E-03 1.307E+01 3.353E+00 4.888E+02 0.000E+00 0.000E+00 1.601E+01 1.560E+01
        1.000E-02 9.647E+00 3.735E+00 2.455E+02 0.000E+00 0.000E+00 8.206E+00 7.900E+00
        1.500E-02 5.470E+00 4.257E+00 6.890E+01 0.000E+00 0.000E+00 2.492E+00 2.319E+00
        2.000E-02 3.611E+00 4.524E+00 2.760E+01 0.000E+00 0.000E+00 1.133E+00 1.018E+00
        3.000E-02 1.921E+00 4.760E+00 7.476E+00 0.000E+00 0.000E+00 4.488E-01 3.879E-01
        4.000E-02 1.181E+00 4.808E+00 2.933E+00 0.000E+00 0.000E+00 2.828E-01 2.454E-01
        5.000E-02 7.966E-01 4.775E+00 1.414E+00 0.000E+00 0.000E+00 2.214E-01 1.962E-01
        6.000E-02 5.731E-01 4.706E+00 7.769E-01 0.000E+00 0.000E+00 1.920E-01 1.738E-01
        8.000E-02 3.370E-01 4.533E+00 3.017E-01 0.000E+00 0.000E+00 1.639E-01 1.533E-01
        1.000E-01 2.212E-01 4.354E+00 1.449E-01 0.000E+00 0.000E+00 1.496E-01 1.426E-01
        1.500E-01 1.013E-01 3.955E+00 3.854E-02 0.000E+00 0.000E+00 1.298E-01 1.266E-01
        2.000E-01 5.764E-02 3.637E+00 1.527E-02 0.000E+00 0.000E+00 1.176E-01 1.158E-01
        3.000E-01 2.585E-02 3.172E+00 4.330E-03 0.000E+00 0.000E+00 1.015E-01 1.007E-01
        4.000E-01 1.459E-02 2.846E+00 1.858E-03 0.000E+00 0.000E+00 9.073E-02 9.027E-02
        5.000E-01 9.349E-03 2.600E+00 1.002E-03 0.000E+00 0.000E+00 8.274E-02 8.245E-02
        6.000E-01 6.498E-03 2.406E+00 6.245E-04 0.000E+00 0.000E+00 7.649E-02 7.629E-02
        8.000E-01 3.658E-03 2.115E+00 3.153E-04 0.000E+00 0.000E+00 6.717E-02 6.705E-02
        1.000E+00 2.342E-03 1.902E+00 1.960E-04 0.000E+00 0.000E+00 6.037E-02 6.030E-02
        1.022E+00 2.242E-03 1.882E+00 1.834E-04 0.000E+00 0.000E+00 5.973E-02 5.966E-02
        1.250E+00 1.499E-03 1.701E+00 1.244E-04 6.506E-04 0.000E+00 5.399E-02 5.394E-02
        1.500E+00 1.041E-03 1.546E+00 9.028E-05 3.601E-03 0.000E+00 4.916E-02 4.912E-02
        2.000E+00 5.858E-04 1.319E+00 5.669E-05 1.434E-02 0.000E+00 4.228E-02 4.227E-02
        2.044E+00 5.609E-04 1.303E+00 5.483E-05 1.546E-02 0.000E+00 4.181E-02 4.179E-02
        3.000E+00 2.604E-04 1.038E+00 3.160E-05 4.101E-02 3.631E-04 3.422E-02 3.422E-02
        4.000E+00 1.465E-04 8.658E-01 2.166E-05 6.651E-02 1.483E-03 2.960E-02 2.960E-02
        5.000E+00 9.374E-05 7.477E-01 1.641E-05 8.924E-02 2.954E-03 2.663E-02 2.662E-02
        6.000E+00 6.510E-05 6.609E-01 1.319E-05 1.096E-01 4.538E-03 2.457E-02 2.457E-02
        7.000E+00 4.783E-05 5.940E-01 1.101E-05 1.278E-01 6.118E-03 2.308E-02 2.307E-02
        8.000E+00 3.662E-05 5.406E-01 9.444E-06 1.441E-01 7.653E-03 2.195E-02 2.195E-02
        9.000E+00 2.893E-05 4.969E-01 8.266E-06 1.589E-01 9.124E-03 2.108E-02 2.108E-02
        1.000E+01 2.344E-05 4.604E-01 7.348E-06 1.724E-01 1.053E-02 2.039E-02 2.039E-02
        1.100E+01 1.937E-05 4.294E-01 6.612E-06 1.847E-01 1.186E-02 1.984E-02 1.984E-02
        1.200E+01 1.627E-05 4.027E-01 6.009E-06 1.959E-01 1.311E-02 1.939E-02 1.939E-02
        1.300E+01 1.387E-05 3.794E-01 5.507E-06 2.063E-01 1.430E-02 1.902E-02 1.902E-02
        1.400E+01 1.196E-05 3.589E-01 5.082E-06 2.160E-01 1.544E-02 1.871E-02 1.871E-02
        1.500E+01 1.042E-05 3.408E-01 4.717E-06 2.251E-01 1.652E-02 1.846E-02 1.846E-02
        1.600E+01 9.155E-06 3.245E-01 4.402E-06 2.336E-01 1.754E-02 1.825E-02 1.825E-02
 
        F                                                                       
 
        Constituents (Atomic Number:Fraction by Weight)
           9:1.00000
 
        Cross Sections and Attenuation Coefficients
        (Note that 1 b(arn) = 10**(-24) cm2)
 
         PHOTON       SCATTERING       PHOTO-     PAIR PRODUCTION    TOTAL ATTENUATION
         ENERGY   COHERENT  INCOHER.  ELECTRIC     IN        IN        WITH    WITHOUT
                                     ABSORPTION  NUCLEAR  ELECTRON   COHERENT  COHERENT
                                                  FIELD     FIELD     SCATT.    SCATT.
          (MeV)   (b/atom)  (b/atom)  (b/atom)  (b/atom)  (b/atom)    (cm2/g)   (cm2/g)
 
        1.800E+01 7.233E-06 2.966E-01 3.882E-06 2.493E-01 1.945E-02 1.792E-02 1.792E-02
        2.000E+01 5.859E-06 2.735E-01 3.471E-06 2.633E-01 2.120E-02 1.769E-02 1.769E-02
        2.200E+01 4.842E-06 2.540E-01 3.139E-06 2.760E-01 2.281E-02 1.752E-02 1.752E-02
        2.400E+01 4.069E-06 2.374E-01 2.865E-06 2.875E-01 2.430E-02 1.741E-02 1.741E-02
        2.600E+01 3.467E-06 2.229E-01 2.635E-06 2.981E-01 2.568E-02 1.733E-02 1.733E-02
        2.800E+01 2.989E-06 2.103E-01 2.439E-06 3.079E-01 2.697E-02 1.728E-02 1.728E-02
        3.000E+01 2.604E-06 1.991E-01 2.270E-06 3.170E-01 2.817E-02 1.725E-02 1.725E-02
        4.000E+01 1.465E-06 1.582E-01 1.686E-06 3.540E-01 3.324E-02 1.729E-02 1.729E-02
        5.000E+01 9.374E-07 1.321E-01 1.341E-06 3.822E-01 3.717E-02 1.748E-02 1.748E-02
        6.000E+01 6.510E-07 1.138E-01 1.113E-06 4.045E-01 4.036E-02 1.771E-02 1.771E-02
        8.000E+01 3.662E-07 8.975E-02 8.307E-07 4.380E-01 4.530E-02 1.816E-02 1.816E-02
        1.000E+02 2.343E-07 7.449E-02 6.626E-07 4.626E-01 4.901E-02 1.858E-02 1.858E-02
        1.500E+02 1.041E-07 5.305E-02 4.400E-07 5.029E-01 5.536E-02 1.938E-02 1.938E-02
        2.000E+02 5.858E-08 4.159E-02 3.294E-07 5.276E-01 5.949E-02 1.993E-02 1.993E-02
        3.000E+02 2.604E-08 2.948E-02 2.191E-07 5.568E-01 6.467E-02 2.063E-02 2.063E-02
        4.000E+02 1.464E-08 2.309E-02 1.642E-07 5.738E-01 6.783E-02 2.107E-02 2.107E-02
        5.000E+02 9.373E-09 1.911E-02 1.313E-07 5.850E-01 7.001E-02 2.137E-02 2.137E-02
        6.000E+02 6.509E-09 1.636E-02 1.094E-07 5.931E-01 7.162E-02 2.159E-02 2.159E-02
        8.000E+02 3.661E-09 1.278E-02 8.197E-08 6.040E-01 7.384E-02 2.189E-02 2.189E-02
        1.000E+03 2.343E-09 1.051E-02 6.556E-08 6.110E-01 7.532E-02 2.209E-02 2.209E-02
        1.500E+03 1.041E-09 7.343E-03 4.369E-08 6.212E-01 7.753E-02 2.238E-02 2.238E-02
        2.000E+03 5.858E-10 5.683E-03 3.276E-08 6.268E-01 7.878E-02 2.255E-02 2.255E-02
        3.000E+03 2.604E-10 3.951E-03 2.184E-08 6.329E-01 8.013E-02 2.273E-02 2.273E-02
        4.000E+03 1.464E-10 3.050E-03 1.637E-08 6.361E-01 8.094E-02 2.283E-02 2.283E-02
        5.000E+03 9.373E-11 2.494E-03 1.310E-08 6.382E-01 8.142E-02 2.289E-02 2.289E-02
        6.000E+03 6.509E-11 2.115E-03 1.092E-08 6.396E-01 8.177E-02 2.293E-02 2.293E-02
        8.000E+03 3.661E-11 1.629E-03 8.186E-09 6.415E-01 8.222E-02 2.299E-02 2.299E-02
        1.000E+04 2.343E-11 1.330E-03 6.549E-09 6.427E-01 8.251E-02 2.303E-02 2.303E-02
        1.500E+04 1.041E-11 9.193E-04 4.366E-09 6.443E-01 8.290E-02 2.308E-02 2.308E-02
        2.000E+04 5.858E-12 7.068E-04 3.274E-09 6.452E-01 8.313E-02 2.311E-02 2.311E-02
        3.000E+04 2.604E-12 4.874E-04 2.183E-09 6.461E-01 8.334E-02 2.314E-02 2.314E-02
        4.000E+04 1.464E-12 3.742E-04 1.637E-09 6.466E-01 8.349E-02 2.315E-02 2.315E-02
        5.000E+04 9.373E-13 3.047E-04 1.310E-09 6.469E-01 8.357E-02 2.316E-02 2.316E-02
        6.000E+04 6.509E-13 2.576E-04 1.091E-09 6.471E-01 8.362E-02 2.317E-02 2.317E-02
        8.000E+04 3.661E-13 1.975E-04 8.185E-10 6.474E-01 8.368E-02 2.318E-02 2.318E-02
        1.000E+05 2.343E-13 1.607E-04 6.548E-10 6.476E-01 8.372E-02 2.319E-02 2.319E-02
