        He                                                                      
 
        Constituents (Atomic Number:Fraction by Weight)
           2:1.00000
 
        Cross Sections and Attenuation Coefficients
        (Note that 1 b(arn) = 10**(-24) cm2)
 
         PHOTON       SCATTERING       PHOTO-     PAIR PRODUCTION    TOTAL ATTENUATION
         ENERGY   COHERENT  INCOHER.  ELECTRIC     IN        IN        WITH    WITHOUT
                                     ABSORPTION  NUCLEAR  ELECTRON   COHERENT  COHERENT
                                                  FIELD     FIELD     SCATT.    SCATT.
          (MeV)   (b/atom)  (b/atom)  (b/atom)  (b/atom)  (b/atom)    (cm2/g)   (cm2/g)
 
        1.000E-03 2.517E+00 6.759E-02 4.017E+02 0.000E+00 0.000E+00 6.083E+01 6.045E+01
        1.500E-03 2.357E+00 1.419E-01 1.089E+02 0.000E+00 0.000E+00 1.676E+01 1.641E+01
        2.000E-03 2.163E+00 2.317E-01 4.323E+01 0.000E+00 0.000E+00 6.864E+00 6.539E+00
        3.000E-03 1.746E+00 4.230E-01 1.117E+01 0.000E+00 0.000E+00 2.007E+00 1.744E+00
        4.000E-03 1.372E+00 5.948E-01 4.234E+00 0.000E+00 0.000E+00 9.329E-01 7.265E-01
        5.000E-03 1.074E+00 7.328E-01 2.026E+00 0.000E+00 0.000E+00 5.767E-01 4.151E-01
        6.000E-03 8.507E-01 8.385E-01 1.099E+00 0.000E+00 0.000E+00 4.195E-01 2.915E-01
        8.000E-03 5.600E-01 9.785E-01 4.110E-01 0.000E+00 0.000E+00 2.933E-01 2.091E-01
        1.000E-02 3.925E-01 1.059E+00 1.941E-01 0.000E+00 0.000E+00 2.476E-01 1.885E-01
        1.500E-02 1.964E-01 1.145E+00 4.875E-02 0.000E+00 0.000E+00 2.092E-01 1.796E-01
        2.000E-02 1.167E-01 1.168E+00 1.829E-02 0.000E+00 0.000E+00 1.960E-01 1.785E-01
        3.000E-02 5.435E-02 1.163E+00 4.568E-03 0.000E+00 0.000E+00 1.838E-01 1.757E-01
        4.000E-02 3.114E-02 1.139E+00 1.705E-03 0.000E+00 0.000E+00 1.763E-01 1.716E-01
        5.000E-02 2.011E-02 1.111E+00 7.945E-04 0.000E+00 0.000E+00 1.703E-01 1.673E-01
        6.000E-02 1.403E-02 1.083E+00 4.259E-04 0.000E+00 0.000E+00 1.651E-01 1.630E-01
        8.000E-02 7.935E-03 1.030E+00 1.596E-04 0.000E+00 0.000E+00 1.562E-01 1.550E-01
        1.000E-01 5.090E-03 9.825E-01 7.484E-05 0.000E+00 0.000E+00 1.486E-01 1.478E-01
        1.500E-01 2.268E-03 8.860E-01 1.916E-05 0.000E+00 0.000E+00 1.336E-01 1.333E-01
        2.000E-01 1.277E-03 8.124E-01 7.428E-06 0.000E+00 0.000E+00 1.224E-01 1.222E-01
        3.000E-01 5.678E-04 7.068E-01 2.049E-06 0.000E+00 0.000E+00 1.064E-01 1.063E-01
        4.000E-01 3.194E-04 6.334E-01 8.662E-07 0.000E+00 0.000E+00 9.535E-02 9.530E-02
        5.000E-01 2.045E-04 5.785E-01 4.635E-07 0.000E+00 0.000E+00 8.707E-02 8.704E-02
        6.000E-01 1.420E-04 5.352E-01 2.876E-07 0.000E+00 0.000E+00 8.055E-02 8.052E-02
        8.000E-01 7.988E-05 4.702E-01 1.449E-07 0.000E+00 0.000E+00 7.076E-02 7.074E-02
        1.000E+00 5.112E-05 4.228E-01 9.028E-08 0.000E+00 0.000E+00 6.362E-02 6.361E-02
        1.022E+00 4.894E-05 4.183E-01 8.294E-08 0.000E+00 0.000E+00 6.294E-02 6.294E-02
        1.250E+00 3.272E-05 3.780E-01 5.662E-08 3.127E-05 0.000E+00 5.688E-02 5.688E-02
        1.500E+00 2.272E-05 3.436E-01 4.140E-08 1.755E-04 0.000E+00 5.173E-02 5.172E-02
        2.000E+00 1.278E-05 2.932E-01 2.632E-08 7.034E-04 0.000E+00 4.422E-02 4.422E-02
        2.044E+00 1.224E-05 2.896E-01 2.549E-08 7.584E-04 0.000E+00 4.369E-02 4.369E-02
        3.000E+00 5.680E-06 2.307E-01 1.492E-08 2.020E-03 8.070E-05 3.503E-02 3.503E-02
        4.000E+00 3.195E-06 1.924E-01 1.033E-08 3.281E-03 3.295E-04 2.949E-02 2.949E-02
        5.000E+00 2.045E-06 1.662E-01 7.879E-09 4.405E-03 6.565E-04 2.577E-02 2.577E-02
        6.000E+00 1.420E-06 1.469E-01 6.361E-09 5.419E-03 1.008E-03 2.307E-02 2.307E-02
        7.000E+00 1.043E-06 1.320E-01 5.330E-09 6.321E-03 1.360E-03 2.102E-02 2.102E-02
        8.000E+00 7.988E-07 1.201E-01 4.585E-09 7.137E-03 1.701E-03 1.940E-02 1.940E-02
        9.000E+00 6.312E-07 1.104E-01 4.022E-09 7.878E-03 2.028E-03 1.810E-02 1.810E-02
        1.000E+01 5.112E-07 1.023E-01 3.581E-09 8.552E-03 2.339E-03 1.703E-02 1.703E-02
        1.100E+01 4.225E-07 9.543E-02 3.228E-09 9.167E-03 2.635E-03 1.613E-02 1.613E-02
        1.200E+01 3.550E-07 8.950E-02 2.937E-09 9.732E-03 2.915E-03 1.537E-02 1.537E-02
        1.300E+01 3.025E-07 8.431E-02 2.695E-09 1.026E-02 3.180E-03 1.471E-02 1.471E-02
        1.400E+01 2.608E-07 7.976E-02 2.489E-09 1.075E-02 3.432E-03 1.413E-02 1.413E-02
        1.500E+01 2.272E-07 7.572E-02 2.312E-09 1.121E-02 3.672E-03 1.363E-02 1.363E-02
        1.600E+01 1.997E-07 7.211E-02 2.159E-09 1.164E-02 3.901E-03 1.319E-02 1.319E-02
 
        He                                                                      
 
        Constituents (Atomic Number:Fraction by Weight)
           2:1.00000
 
        Cross Sections and Attenuation Coefficients
        (Note that 1 b(arn) = 10**(-24) cm2)
 
         PHOTON       SCATTERING       PHOTO-     PAIR PRODUCTION    TOTAL ATTENUATION
         ENERGY   COHERENT  INCOHER.  ELECTRIC     IN        IN        WITH    WITHOUT
                                     ABSORPTION  NUCLEAR  ELECTRON   COHERENT  COHERENT
                                                  FIELD     FIELD     SCATT.    SCATT.
          (MeV)   (b/atom)  (b/atom)  (b/atom)  (b/atom)  (b/atom)    (cm2/g)   (cm2/g)
 
        1.800E+01 1.578E-07 6.591E-02 1.906E-09 1.244E-02 4.328E-03 1.244E-02 1.244E-02
        2.000E+01 1.278E-07 6.078E-02 1.707E-09 1.316E-02 4.718E-03 1.183E-02 1.183E-02
        2.200E+01 1.056E-07 5.645E-02 1.545E-09 1.382E-02 5.079E-03 1.134E-02 1.134E-02
        2.400E+01 8.876E-08 5.275E-02 1.411E-09 1.442E-02 5.413E-03 1.092E-02 1.092E-02
        2.600E+01 7.562E-08 4.954E-02 1.298E-09 1.498E-02 5.723E-03 1.057E-02 1.057E-02
        2.800E+01 6.521E-08 4.673E-02 1.202E-09 1.549E-02 6.013E-03 1.027E-02 1.027E-02
        3.000E+01 5.680E-08 4.425E-02 1.119E-09 1.597E-02 6.285E-03 1.001E-02 1.001E-02
        4.000E+01 3.195E-08 3.516E-02 8.327E-10 1.798E-02 7.437E-03 9.114E-03 9.114E-03
        5.000E+01 2.045E-08 2.935E-02 6.629E-10 1.952E-02 8.344E-03 8.608E-03 8.608E-03
        6.000E+01 1.420E-08 2.529E-02 5.506E-10 2.076E-02 9.087E-03 8.296E-03 8.296E-03
        8.000E+01 7.986E-09 1.994E-02 4.113E-10 2.265E-02 1.025E-02 7.950E-03 7.950E-03
        1.000E+02 5.110E-09 1.655E-02 3.282E-10 2.404E-02 1.115E-02 7.785E-03 7.785E-03
        1.500E+02 2.271E-09 1.179E-02 2.181E-10 2.633E-02 1.271E-02 7.648E-03 7.648E-03
        2.000E+02 1.278E-09 9.242E-03 1.633E-10 2.775E-02 1.375E-02 7.634E-03 7.634E-03
        3.000E+02 5.678E-10 6.551E-03 1.087E-10 2.943E-02 1.509E-02 7.684E-03 7.684E-03
        4.000E+02 3.194E-10 5.130E-03 8.144E-11 3.041E-02 1.592E-02 7.742E-03 7.742E-03
        5.000E+02 2.044E-10 4.247E-03 6.512E-11 3.106E-02 1.650E-02 7.795E-03 7.795E-03
        6.000E+02 1.420E-10 3.636E-03 5.425E-11 3.152E-02 1.693E-02 7.837E-03 7.837E-03
        8.000E+02 7.985E-11 2.840E-03 4.067E-11 3.215E-02 1.753E-02 7.902E-03 7.902E-03
        1.000E+03 5.110E-11 2.336E-03 3.253E-11 3.255E-02 1.793E-02 7.946E-03 7.946E-03
        1.500E+03 2.271E-11 1.632E-03 2.168E-11 3.314E-02 1.854E-02 8.021E-03 8.021E-03
        2.000E+03 1.278E-11 1.263E-03 1.626E-11 3.346E-02 1.888E-02 8.065E-03 8.065E-03
        3.000E+03 5.678E-12 8.781E-04 1.083E-11 3.380E-02 1.926E-02 8.115E-03 8.115E-03
        4.000E+03 3.194E-12 6.778E-04 8.126E-12 3.401E-02 1.948E-02 8.150E-03 8.150E-03
        5.000E+03 2.044E-12 5.542E-04 6.500E-12 3.413E-02 1.961E-02 8.169E-03 8.169E-03
        6.000E+03 1.420E-12 4.699E-04 5.417E-12 3.421E-02 1.971E-02 8.183E-03 8.183E-03
        8.000E+03 7.985E-13 3.621E-04 4.062E-12 3.432E-02 1.984E-02 8.203E-03 8.203E-03
        1.000E+04 5.110E-13 2.956E-04 3.250E-12 3.439E-02 1.992E-02 8.216E-03 8.216E-03
        1.500E+04 2.271E-13 2.043E-04 2.166E-12 3.447E-02 2.003E-02 8.231E-03 8.231E-03
        2.000E+04 1.278E-13 1.571E-04 1.625E-12 3.453E-02 2.009E-02 8.242E-03 8.242E-03
        3.000E+04 5.678E-14 1.083E-04 1.083E-12 3.458E-02 2.015E-02 8.251E-03 8.251E-03
        4.000E+04 3.194E-14 8.316E-05 8.124E-13 3.461E-02 2.019E-02 8.257E-03 8.257E-03
        5.000E+04 2.044E-14 6.772E-05 6.499E-13 3.463E-02 2.022E-02 8.263E-03 8.263E-03
        6.000E+04 1.420E-14 5.724E-05 5.416E-13 3.464E-02 2.023E-02 8.264E-03 8.264E-03
        8.000E+04 7.985E-15 4.389E-05 4.062E-13 3.465E-02 2.025E-02 8.267E-03 8.267E-03
        1.000E+05 5.110E-15 3.571E-05 3.249E-13 3.466E-02 2.026E-02 8.268E-03 8.268E-03
