        Hg                                                                      
 
        Constituents (Atomic Number:Fraction by Weight)
          80:1.00000
 
        Cross Sections and Attenuation Coefficients
        (Note that 1 b(arn) = 10**(-24) cm2)
 
         PHOTON       SCATTERING       PHOTO-     PAIR PRODUCTION    TOTAL ATTENUATION
         ENERGY   COHERENT  INCOHER.  ELECTRIC     IN        IN        WITH    WITHOUT
                                     ABSORPTION  NUCLEAR  ELECTRON   COHERENT  COHERENT
                                                  FIELD     FIELD     SCATT.    SCATT.
          (MeV)   (b/atom)  (b/atom)  (b/atom)  (b/atom)  (b/atom)    (cm2/g)   (cm2/g)
 
        1.000E-03 4.111E+03 1.187E+00 1.605E+06 0.000E+00 0.000E+00 4.831E+03 4.819E+03
        1.500E-03 3.955E+03 2.153E+00 7.201E+05 0.000E+00 0.000E+00 2.174E+03 2.162E+03
        2.000E-03 3.772E+03 3.105E+00 3.905E+05 0.000E+00 0.000E+00 1.184E+03 1.172E+03
        2.295E-03 3.656E+03 3.658E+00 2.886E+05 0.000E+00 0.000E+00 8.774E+02 8.664E+02
 
 80 M5  2.295E-03 3.656E+03 3.658E+00 3.258E+05 0.000E+00 0.000E+00 9.891E+02 9.781E+02
        2.339E-03 3.639E+03 3.740E+00 4.793E+05 0.000E+00 0.000E+00 1.450E+03 1.439E+03
        2.385E-03 3.621E+03 3.824E+00 7.051E+05 0.000E+00 0.000E+00 2.128E+03 2.117E+03
 
 80 M4  2.385E-03 3.621E+03 3.824E+00 7.606E+05 0.000E+00 0.000E+00 2.294E+03 2.283E+03
        2.606E-03 3.537E+03 4.223E+00 7.238E+05 0.000E+00 0.000E+00 2.184E+03 2.173E+03
        2.847E-03 3.445E+03 4.655E+00 6.888E+05 0.000E+00 0.000E+00 2.078E+03 2.068E+03
 
 80 M3  2.847E-03 3.445E+03 4.655E+00 7.955E+05 0.000E+00 0.000E+00 2.399E+03 2.388E+03
        3.000E-03 3.386E+03 4.929E+00 7.019E+05 0.000E+00 0.000E+00 2.117E+03 2.107E+03
        3.278E-03 3.281E+03 5.420E+00 5.643E+05 0.000E+00 0.000E+00 1.704E+03 1.694E+03
 
 80 M2  3.278E-03 3.281E+03 5.420E+00 5.989E+05 0.000E+00 0.000E+00 1.808E+03 1.798E+03
        3.417E-03 3.229E+03 5.662E+00 5.428E+05 0.000E+00 0.000E+00 1.639E+03 1.630E+03
        3.562E-03 3.176E+03 5.913E+00 4.920E+05 0.000E+00 0.000E+00 1.487E+03 1.477E+03
 
 80 M1  3.562E-03 3.176E+03 5.913E+00 5.129E+05 0.000E+00 0.000E+00 1.549E+03 1.540E+03
        4.000E-03 3.019E+03 6.664E+00 3.896E+05 0.000E+00 0.000E+00 1.179E+03 1.170E+03
        5.000E-03 2.694E+03 8.316E+00 2.261E+05 0.000E+00 0.000E+00 6.869E+02 6.788E+02
        6.000E-03 2.412E+03 9.897E+00 1.437E+05 0.000E+00 0.000E+00 4.387E+02 4.314E+02
        8.000E-03 1.963E+03 1.281E+01 6.932E+04 0.000E+00 0.000E+00 2.140E+02 2.082E+02
        1.000E-02 1.626E+03 1.529E+01 3.903E+04 0.000E+00 0.000E+00 1.221E+02 1.172E+02
        1.228E-02 1.332E+03 1.766E+01 2.285E+04 0.000E+00 0.000E+00 7.265E+01 6.865E+01
 
 80 L3  1.228E-02 1.332E+03 1.766E+01 5.793E+04 0.000E+00 0.000E+00 1.780E+02 1.740E+02
        1.321E-02 1.234E+03 1.848E+01 4.759E+04 0.000E+00 0.000E+00 1.466E+02 1.429E+02
        1.421E-02 1.140E+03 1.931E+01 3.911E+04 0.000E+00 0.000E+00 1.209E+02 1.175E+02
 
 80 L2  1.421E-02 1.140E+03 1.931E+01 5.424E+04 0.000E+00 0.000E+00 1.663E+02 1.629E+02
        1.452E-02 1.113E+03 1.957E+01 5.149E+04 0.000E+00 0.000E+00 1.580E+02 1.546E+02
        1.484E-02 1.086E+03 1.982E+01 4.888E+04 0.000E+00 0.000E+00 1.501E+02 1.468E+02
 
 80 L1  1.484E-02 1.086E+03 1.982E+01 5.656E+04 0.000E+00 0.000E+00 1.731E+02 1.699E+02
        1.500E-02 1.073E+03 1.994E+01 5.489E+04 0.000E+00 0.000E+00 1.681E+02 1.649E+02
        2.000E-02 7.566E+02 2.328E+01 2.628E+04 0.000E+00 0.000E+00 8.124E+01 7.897E+01
        3.000E-02 4.462E+02 2.781E+01 8.989E+03 0.000E+00 0.000E+00 2.841E+01 2.707E+01
        4.000E-02 2.973E+02 3.046E+01 4.142E+03 0.000E+00 0.000E+00 1.342E+01 1.253E+01
        5.000E-02 2.110E+02 3.198E+01 2.256E+03 0.000E+00 0.000E+00 7.502E+00 6.869E+00
        6.000E-02 1.579E+02 3.283E+01 1.369E+03 0.000E+00 0.000E+00 4.683E+00 4.209E+00
 
        Hg                                                                      
 
        Constituents (Atomic Number:Fraction by Weight)
          80:1.00000
 
        Cross Sections and Attenuation Coefficients
        (Note that 1 b(arn) = 10**(-24) cm2)
 
         PHOTON       SCATTERING       PHOTO-     PAIR PRODUCTION    TOTAL ATTENUATION
         ENERGY   COHERENT  INCOHER.  ELECTRIC     IN        IN        WITH    WITHOUT
                                     ABSORPTION  NUCLEAR  ELECTRON   COHERENT  COHERENT
                                                  FIELD     FIELD     SCATT.    SCATT.
          (MeV)   (b/atom)  (b/atom)  (b/atom)  (b/atom)  (b/atom)    (cm2/g)   (cm2/g)
 
        8.000E-02 9.926E+01 3.343E+01 6.197E+02 0.000E+00 0.000E+00 2.259E+00 1.961E+00
        8.310E-02 9.323E+01 3.345E+01 5.578E+02 0.000E+00 0.000E+00 2.055E+00 1.775E+00
 
 80 K   8.310E-02 9.323E+01 3.345E+01 2.693E+03 0.000E+00 0.000E+00 8.465E+00 8.185E+00
        1.000E-01 6.849E+01 3.332E+01 1.656E+03 0.000E+00 0.000E+00 5.277E+00 5.072E+00
        1.500E-01 3.370E+01 3.191E+01 5.702E+02 0.000E+00 0.000E+00 1.909E+00 1.808E+00
        2.000E-01 2.009E+01 3.015E+01 2.647E+02 0.000E+00 0.000E+00 9.455E-01 8.852E-01
        3.000E-01 9.579E+00 2.701E+01 9.113E+01 0.000E+00 0.000E+00 3.834E-01 3.547E-01
        4.000E-01 5.592E+00 2.455E+01 4.392E+01 0.000E+00 0.000E+00 2.223E-01 2.056E-01
        5.000E-01 3.658E+00 2.261E+01 2.553E+01 0.000E+00 0.000E+00 1.555E-01 1.445E-01
        6.000E-01 2.577E+00 2.104E+01 1.669E+01 0.000E+00 0.000E+00 1.210E-01 1.133E-01
        8.000E-01 1.476E+00 1.859E+01 8.842E+00 0.000E+00 0.000E+00 8.679E-02 8.236E-02
        1.000E+00 9.549E-01 1.677E+01 5.568E+00 0.000E+00 0.000E+00 6.993E-02 6.706E-02
        1.022E+00 9.151E-01 1.660E+01 5.330E+00 0.000E+00 0.000E+00 6.859E-02 6.584E-02
        1.250E+00 6.162E-01 1.503E+01 3.595E+00 1.218E-01 0.000E+00 5.813E-02 5.628E-02
        1.500E+00 4.300E-01 1.368E+01 2.561E+00 5.785E-01 0.000E+00 5.179E-02 5.050E-02
        2.000E+00 2.432E-01 1.169E+01 1.549E+00 1.756E+00 0.000E+00 4.575E-02 4.502E-02
        2.044E+00 2.330E-01 1.155E+01 1.494E+00 1.860E+00 0.000E+00 4.544E-02 4.474E-02
        3.000E+00 1.086E-01 9.210E+00 8.106E-01 3.882E+00 3.218E-03 4.207E-02 4.175E-02
        4.000E+00 6.119E-02 7.687E+00 5.311E-01 5.604E+00 1.312E-02 4.172E-02 4.154E-02
        5.000E+00 3.919E-02 6.641E+00 3.894E-01 7.046E+00 2.609E-02 4.246E-02 4.234E-02
        6.000E+00 2.723E-02 5.870E+00 3.053E-01 8.288E+00 3.999E-02 4.362E-02 4.354E-02
        7.000E+00 2.001E-02 5.277E+00 2.501E-01 9.382E+00 5.381E-02 4.498E-02 4.492E-02
        8.000E+00 1.532E-02 4.803E+00 2.113E-01 1.037E+01 6.717E-02 4.643E-02 4.639E-02
        9.000E+00 1.211E-02 4.415E+00 1.827E-01 1.126E+01 7.992E-02 4.788E-02 4.785E-02
        1.000E+01 9.810E-03 4.091E+00 1.607E-01 1.209E+01 9.202E-02 4.937E-02 4.934E-02
        1.100E+01 8.108E-03 3.816E+00 1.434E-01 1.285E+01 1.034E-01 5.080E-02 5.078E-02
        1.200E+01 6.813E-03 3.579E+00 1.293E-01 1.356E+01 1.142E-01 5.221E-02 5.219E-02
        1.300E+01 5.805E-03 3.372E+00 1.178E-01 1.422E+01 1.243E-01 5.356E-02 5.354E-02
        1.400E+01 5.006E-03 3.190E+00 1.081E-01 1.484E+01 1.339E-01 5.487E-02 5.486E-02
        1.500E+01 4.361E-03 3.028E+00 9.982E-02 1.542E+01 1.430E-01 5.613E-02 5.611E-02
        1.600E+01 3.833E-03 2.884E+00 9.273E-02 1.596E+01 1.516E-01 5.732E-02 5.731E-02
        1.800E+01 3.028E-03 2.636E+00 8.117E-02 1.694E+01 1.675E-01 5.953E-02 5.952E-02
        2.000E+01 2.453E-03 2.431E+00 7.215E-02 1.781E+01 1.819E-01 6.154E-02 6.153E-02
        2.200E+01 2.027E-03 2.258E+00 6.492E-02 1.859E+01 1.951E-01 6.338E-02 6.337E-02
        2.400E+01 1.704E-03 2.110E+00 5.899E-02 1.931E+01 2.071E-01 6.511E-02 6.511E-02
        2.600E+01 1.452E-03 1.981E+00 5.406E-02 1.997E+01 2.182E-01 6.672E-02 6.672E-02
        2.800E+01 1.252E-03 1.869E+00 4.988E-02 2.057E+01 2.285E-01 6.821E-02 6.820E-02
        3.000E+01 1.090E-03 1.770E+00 4.630E-02 2.113E+01 2.380E-01 6.961E-02 6.960E-02
        4.000E+01 6.133E-04 1.406E+00 3.405E-02 2.339E+01 2.772E-01 7.538E-02 7.538E-02
        5.000E+01 3.925E-04 1.174E+00 2.692E-02 2.507E+01 3.066E-01 7.979E-02 7.979E-02
        6.000E+01 2.726E-04 1.012E+00 2.225E-02 2.638E+01 3.297E-01 8.329E-02 8.329E-02
        8.000E+01 1.533E-04 7.977E-01 1.652E-02 2.830E+01 3.643E-01 8.850E-02 8.850E-02
        1.000E+02 9.813E-05 6.621E-01 1.314E-02 2.965E+01 3.891E-01 9.221E-02 9.221E-02
 
        Hg                                                                      
 
        Constituents (Atomic Number:Fraction by Weight)
          80:1.00000
 
        Cross Sections and Attenuation Coefficients
        (Note that 1 b(arn) = 10**(-24) cm2)
 
         PHOTON       SCATTERING       PHOTO-     PAIR PRODUCTION    TOTAL ATTENUATION
         ENERGY   COHERENT  INCOHER.  ELECTRIC     IN        IN        WITH    WITHOUT
                                     ABSORPTION  NUCLEAR  ELECTRON   COHERENT  COHERENT
                                                  FIELD     FIELD     SCATT.    SCATT.
          (MeV)   (b/atom)  (b/atom)  (b/atom)  (b/atom)  (b/atom)    (cm2/g)   (cm2/g)
 
        1.500E+02 4.361E-05 4.715E-01 8.686E-03 3.178E+01 4.297E-01 9.814E-02 9.814E-02
        2.000E+02 2.453E-05 3.697E-01 6.488E-03 3.304E+01 4.548E-01 1.017E-01 1.017E-01
        3.000E+02 1.090E-05 2.620E-01 4.307E-03 3.451E+01 4.851E-01 1.059E-01 1.059E-01
        4.000E+02 6.133E-06 2.052E-01 3.224E-03 3.535E+01 5.031E-01 1.083E-01 1.083E-01
        5.000E+02 3.925E-06 1.699E-01 2.576E-03 3.590E+01 5.153E-01 1.098E-01 1.098E-01
        6.000E+02 2.726E-06 1.455E-01 2.145E-03 3.629E+01 5.241E-01 1.110E-01 1.110E-01
        8.000E+02 1.533E-06 1.136E-01 1.607E-03 3.681E+01 5.363E-01 1.125E-01 1.125E-01
        1.000E+03 9.813E-07 9.346E-02 1.285E-03 3.715E+01 5.443E-01 1.135E-01 1.135E-01
        1.500E+03 4.361E-07 6.527E-02 8.558E-04 3.764E+01 5.562E-01 1.149E-01 1.149E-01
        2.000E+03 2.453E-07 5.052E-02 6.416E-04 3.790E+01 5.629E-01 1.156E-01 1.156E-01
        3.000E+03 1.090E-07 3.512E-02 4.275E-04 3.819E+01 5.702E-01 1.165E-01 1.165E-01
        4.000E+03 6.133E-08 2.711E-02 3.206E-04 3.834E+01 5.745E-01 1.169E-01 1.169E-01
        5.000E+03 3.925E-08 2.217E-02 2.564E-04 3.844E+01 5.771E-01 1.172E-01 1.172E-01
        6.000E+03 2.726E-08 1.880E-02 2.137E-04 3.851E+01 5.789E-01 1.174E-01 1.174E-01
        8.000E+03 1.533E-08 1.448E-02 1.602E-04 3.859E+01 5.814E-01 1.176E-01 1.176E-01
        1.000E+04 9.813E-09 1.182E-02 1.282E-04 3.865E+01 5.829E-01 1.178E-01 1.178E-01
        1.500E+04 4.361E-09 8.172E-03 8.545E-05 3.873E+01 5.849E-01 1.181E-01 1.181E-01
        2.000E+04 2.453E-09 6.282E-03 6.408E-05 3.877E+01 5.862E-01 1.182E-01 1.182E-01
        3.000E+04 1.090E-09 4.333E-03 4.272E-05 3.881E+01 5.873E-01 1.183E-01 1.183E-01
        4.000E+04 6.133E-10 3.326E-03 3.204E-05 3.883E+01 5.881E-01 1.184E-01 1.184E-01
        5.000E+04 3.925E-10 2.709E-03 2.563E-05 3.885E+01 5.885E-01 1.184E-01 1.184E-01
        6.000E+04 2.726E-10 2.290E-03 2.136E-05 3.886E+01 5.888E-01 1.184E-01 1.184E-01
        8.000E+04 1.533E-10 1.756E-03 1.602E-05 3.887E+01 5.891E-01 1.185E-01 1.185E-01
        1.000E+05 9.813E-11 1.428E-03 1.282E-05 3.888E+01 5.893E-01 1.185E-01 1.185E-01
