        Na                                                                      
 
        Constituents (Atomic Number:Fraction by Weight)
          11:1.00000
 
        Cross Sections and Attenuation Coefficients
        (Note that 1 b(arn) = 10**(-24) cm2)
 
         PHOTON       SCATTERING       PHOTO-     PAIR PRODUCTION    TOTAL ATTENUATION
         ENERGY   COHERENT  INCOHER.  ELECTRIC     IN        IN        WITH    WITHOUT
                                     ABSORPTION  NUCLEAR  ELECTRON   COHERENT  COHERENT
                                                  FIELD     FIELD     SCATT.    SCATT.
          (MeV)   (b/atom)  (b/atom)  (b/atom)  (b/atom)  (b/atom)    (cm2/g)   (cm2/g)
 
        1.000E-03 7.326E+01 4.848E-01 2.490E+04 0.000E+00 0.000E+00 6.542E+02 6.523E+02
        1.035E-03 7.286E+01 5.063E-01 2.267E+04 0.000E+00 0.000E+00 5.958E+02 5.939E+02
        1.072E-03 7.245E+01 5.284E-01 2.066E+04 0.000E+00 0.000E+00 5.431E+02 5.412E+02
 
 11 K   1.072E-03 7.245E+01 5.284E-01 2.456E+05 0.000E+00 0.000E+00 6.435E+03 6.433E+03
        1.500E-03 6.775E+01 7.613E-01 1.219E+05 0.000E+00 0.000E+00 3.195E+03 3.193E+03
        2.000E-03 6.266E+01 1.007E+00 5.799E+04 0.000E+00 0.000E+00 1.521E+03 1.519E+03
        3.000E-03 5.355E+01 1.507E+00 1.930E+04 0.000E+00 0.000E+00 5.070E+02 5.056E+02
        4.000E-03 4.524E+01 2.017E+00 8.586E+03 0.000E+00 0.000E+00 2.261E+02 2.250E+02
        5.000E-03 3.789E+01 2.503E+00 4.516E+03 0.000E+00 0.000E+00 1.194E+02 1.184E+02
        6.000E-03 3.171E+01 2.946E+00 2.649E+03 0.000E+00 0.000E+00 7.030E+01 6.947E+01
        8.000E-03 2.264E+01 3.674E+00 1.126E+03 0.000E+00 0.000E+00 3.018E+01 2.959E+01
        1.000E-02 1.683E+01 4.203E+00 5.735E+02 0.000E+00 0.000E+00 1.557E+01 1.513E+01
        1.500E-02 9.430E+00 4.963E+00 1.648E+02 0.000E+00 0.000E+00 4.694E+00 4.447E+00
        2.000E-02 6.155E+00 5.335E+00 6.705E+01 0.000E+00 0.000E+00 2.057E+00 1.896E+00
        3.000E-02 3.282E+00 5.666E+00 1.853E+01 0.000E+00 0.000E+00 7.198E-01 6.338E-01
        4.000E-02 2.033E+00 5.761E+00 7.358E+00 0.000E+00 0.000E+00 3.969E-01 3.437E-01
        5.000E-02 1.377E+00 5.749E+00 3.577E+00 0.000E+00 0.000E+00 2.804E-01 2.443E-01
        6.000E-02 9.925E-01 5.685E+00 1.980E+00 0.000E+00 0.000E+00 2.268E-01 2.008E-01
        8.000E-02 5.851E-01 5.497E+00 7.759E-01 0.000E+00 0.000E+00 1.796E-01 1.643E-01
        1.000E-01 3.852E-01 5.291E+00 3.751E-01 0.000E+00 0.000E+00 1.585E-01 1.484E-01
        1.500E-01 1.772E-01 4.819E+00 1.007E-01 0.000E+00 0.000E+00 1.335E-01 1.289E-01
        2.000E-01 1.011E-01 4.437E+00 4.018E-02 0.000E+00 0.000E+00 1.199E-01 1.173E-01
        3.000E-01 4.547E-02 3.873E+00 1.145E-02 0.000E+00 0.000E+00 1.029E-01 1.018E-01
        4.000E-01 2.568E-02 3.476E+00 4.933E-03 0.000E+00 0.000E+00 9.186E-02 9.118E-02
        5.000E-01 1.647E-02 3.177E+00 2.668E-03 0.000E+00 0.000E+00 8.372E-02 8.329E-02
        6.000E-01 1.145E-02 2.940E+00 1.664E-03 0.000E+00 0.000E+00 7.736E-02 7.706E-02
        8.000E-01 6.447E-03 2.584E+00 8.411E-04 0.000E+00 0.000E+00 6.788E-02 6.771E-02
        1.000E+00 4.128E-03 2.324E+00 5.228E-04 0.000E+00 0.000E+00 6.100E-02 6.089E-02
        1.022E+00 3.952E-03 2.299E+00 4.914E-04 0.000E+00 0.000E+00 6.034E-02 6.023E-02
        1.250E+00 2.643E-03 2.078E+00 3.333E-04 9.869E-04 0.000E+00 5.454E-02 5.447E-02
        1.500E+00 1.836E-03 1.889E+00 2.416E-04 5.425E-03 0.000E+00 4.968E-02 4.963E-02
        2.000E+00 1.033E-03 1.612E+00 1.513E-04 2.153E-02 0.000E+00 4.282E-02 4.279E-02
        2.044E+00 9.887E-04 1.592E+00 1.463E-04 2.321E-02 0.000E+00 4.234E-02 4.231E-02
        3.000E+00 4.590E-04 1.269E+00 8.400E-05 6.139E-02 4.438E-04 3.488E-02 3.486E-02
        4.000E+00 2.582E-04 1.058E+00 5.743E-05 9.942E-02 1.812E-03 3.037E-02 3.037E-02
        5.000E+00 1.653E-04 9.138E-01 4.344E-05 1.333E-01 3.611E-03 2.753E-02 2.752E-02
        6.000E+00 1.148E-04 8.077E-01 3.486E-05 1.636E-01 5.546E-03 2.559E-02 2.559E-02
        7.000E+00 8.432E-05 7.260E-01 2.908E-05 1.906E-01 7.477E-03 2.421E-02 2.421E-02
        8.000E+00 6.456E-05 6.607E-01 2.493E-05 2.150E-01 9.353E-03 2.319E-02 2.318E-02
        9.000E+00 5.101E-05 6.073E-01 2.181E-05 2.370E-01 1.115E-02 2.241E-02 2.241E-02
        1.000E+01 4.132E-05 5.627E-01 1.937E-05 2.571E-01 1.286E-02 2.181E-02 2.181E-02
        1.100E+01 3.415E-05 5.249E-01 1.743E-05 2.753E-01 1.449E-02 2.134E-02 2.134E-02
        1.200E+01 2.869E-05 4.922E-01 1.583E-05 2.920E-01 1.603E-02 2.096E-02 2.096E-02
 
        Na                                                                      
 
        Constituents (Atomic Number:Fraction by Weight)
          11:1.00000
 
        Cross Sections and Attenuation Coefficients
        (Note that 1 b(arn) = 10**(-24) cm2)
 
         PHOTON       SCATTERING       PHOTO-     PAIR PRODUCTION    TOTAL ATTENUATION
         ENERGY   COHERENT  INCOHER.  ELECTRIC     IN        IN        WITH    WITHOUT
                                     ABSORPTION  NUCLEAR  ELECTRON   COHERENT  COHERENT
                                                  FIELD     FIELD     SCATT.    SCATT.
          (MeV)   (b/atom)  (b/atom)  (b/atom)  (b/atom)  (b/atom)    (cm2/g)   (cm2/g)
 
        1.300E+01 2.445E-05 4.637E-01 1.451E-05 3.075E-01 1.748E-02 2.066E-02 2.066E-02
        1.400E+01 2.108E-05 4.387E-01 1.338E-05 3.219E-01 1.886E-02 2.042E-02 2.042E-02
        1.500E+01 1.836E-05 4.165E-01 1.242E-05 3.354E-01 2.018E-02 2.023E-02 2.022E-02
        1.600E+01 1.614E-05 3.966E-01 1.159E-05 3.480E-01 2.143E-02 2.007E-02 2.007E-02
        1.800E+01 1.275E-05 3.625E-01 1.021E-05 3.712E-01 2.376E-02 1.984E-02 1.984E-02
        2.000E+01 1.033E-05 3.343E-01 9.132E-06 3.920E-01 2.589E-02 1.970E-02 1.970E-02
        2.200E+01 8.536E-06 3.105E-01 8.257E-06 4.108E-01 2.785E-02 1.962E-02 1.962E-02
        2.400E+01 7.173E-06 2.901E-01 7.535E-06 4.279E-01 2.966E-02 1.959E-02 1.959E-02
        2.600E+01 6.112E-06 2.724E-01 6.928E-06 4.435E-01 3.135E-02 1.957E-02 1.957E-02
        2.800E+01 5.270E-06 2.570E-01 6.412E-06 4.580E-01 3.291E-02 1.959E-02 1.959E-02
        3.000E+01 4.591E-06 2.434E-01 5.967E-06 4.714E-01 3.438E-02 1.962E-02 1.962E-02
        4.000E+01 2.582E-06 1.934E-01 4.430E-06 5.264E-01 4.053E-02 1.992E-02 1.992E-02
        5.000E+01 1.653E-06 1.614E-01 3.523E-06 5.679E-01 4.530E-02 2.029E-02 2.029E-02
        6.000E+01 1.148E-06 1.391E-01 2.924E-06 6.008E-01 4.915E-02 2.067E-02 2.067E-02
        8.000E+01 6.455E-07 1.097E-01 2.182E-06 6.502E-01 5.509E-02 2.135E-02 2.135E-02
        1.000E+02 4.131E-07 9.104E-02 1.740E-06 6.858E-01 5.952E-02 2.191E-02 2.191E-02
        1.500E+02 1.836E-07 6.483E-02 1.155E-06 7.434E-01 6.703E-02 2.293E-02 2.293E-02
        2.000E+02 1.033E-07 5.083E-02 8.646E-07 7.784E-01 7.186E-02 2.360E-02 2.360E-02
        3.000E+02 4.590E-08 3.603E-02 5.752E-07 8.195E-01 7.790E-02 2.445E-02 2.445E-02
        4.000E+02 2.582E-08 2.822E-02 4.309E-07 8.434E-01 8.160E-02 2.497E-02 2.497E-02
        5.000E+02 1.652E-08 2.336E-02 3.445E-07 8.592E-01 8.416E-02 2.532E-02 2.532E-02
        6.000E+02 1.148E-08 2.000E-02 2.870E-07 8.705E-01 8.605E-02 2.558E-02 2.558E-02
        8.000E+02 6.455E-09 1.562E-02 2.151E-07 8.857E-01 8.870E-02 2.593E-02 2.593E-02
        1.000E+03 4.131E-09 1.285E-02 1.721E-07 8.956E-01 9.048E-02 2.617E-02 2.617E-02
        1.500E+03 1.836E-09 8.974E-03 1.147E-07 9.099E-01 9.317E-02 2.651E-02 2.651E-02
        2.000E+03 1.033E-09 6.946E-03 8.597E-08 9.178E-01 9.472E-02 2.670E-02 2.670E-02
        3.000E+03 4.590E-10 4.830E-03 5.730E-08 9.263E-01 9.643E-02 2.692E-02 2.692E-02
        4.000E+03 2.582E-10 3.728E-03 4.297E-08 9.309E-01 9.744E-02 2.703E-02 2.703E-02
        5.000E+03 1.652E-10 3.048E-03 3.438E-08 9.338E-01 9.807E-02 2.711E-02 2.711E-02
        6.000E+03 1.148E-10 2.585E-03 2.865E-08 9.358E-01 9.851E-02 2.716E-02 2.716E-02
        8.000E+03 6.455E-11 1.991E-03 2.148E-08 9.384E-01 9.910E-02 2.723E-02 2.723E-02
        1.000E+04 4.131E-11 1.626E-03 1.719E-08 9.400E-01 9.947E-02 2.727E-02 2.727E-02
        1.500E+04 1.836E-11 1.124E-03 1.146E-08 9.424E-01 9.999E-02 2.733E-02 2.733E-02
        2.000E+04 1.033E-11 8.638E-04 8.593E-09 9.436E-01 1.003E-01 2.737E-02 2.737E-02
        3.000E+04 4.590E-12 5.957E-04 5.728E-09 9.449E-01 1.006E-01 2.740E-02 2.740E-02
        4.000E+04 2.582E-12 4.574E-04 4.296E-09 9.456E-01 1.008E-01 2.742E-02 2.742E-02
        5.000E+04 1.652E-12 3.724E-04 3.437E-09 9.460E-01 1.009E-01 2.743E-02 2.743E-02
        6.000E+04 1.148E-12 3.148E-04 2.864E-09 9.463E-01 1.009E-01 2.744E-02 2.744E-02
        8.000E+04 6.455E-13 2.414E-04 2.148E-09 9.467E-01 1.010E-01 2.745E-02 2.745E-02
        1.000E+05 4.131E-13 1.964E-04 1.718E-09 9.469E-01 1.011E-01 2.746E-02 2.746E-02
