        Ne                                                                      
 
        Constituents (Atomic Number:Fraction by Weight)
          10:1.00000
 
        Cross Sections and Attenuation Coefficients
        (Note that 1 b(arn) = 10**(-24) cm2)
 
         PHOTON       SCATTERING       PHOTO-     PAIR PRODUCTION    TOTAL ATTENUATION
         ENERGY   COHERENT  INCOHER.  ELECTRIC     IN        IN        WITH    WITHOUT
                                     ABSORPTION  NUCLEAR  ELECTRON   COHERENT  COHERENT
                                                  FIELD     FIELD     SCATT.    SCATT.
          (MeV)   (b/atom)  (b/atom)  (b/atom)  (b/atom)  (b/atom)    (cm2/g)   (cm2/g)
 
        1.000E-03 6.367E+01 1.836E-01 2.482E+05 0.000E+00 0.000E+00 7.409E+03 7.407E+03
        1.500E-03 6.042E+01 3.902E-01 8.928E+04 0.000E+00 0.000E+00 2.666E+03 2.664E+03
        2.000E-03 5.640E+01 6.452E-01 4.159E+04 0.000E+00 0.000E+00 1.243E+03 1.241E+03
        3.000E-03 4.742E+01 1.221E+00 1.353E+04 0.000E+00 0.000E+00 4.052E+02 4.038E+02
        4.000E-03 3.886E+01 1.796E+00 5.939E+03 0.000E+00 0.000E+00 1.784E+02 1.773E+02
        5.000E-03 3.165E+01 2.320E+00 3.095E+03 0.000E+00 0.000E+00 9.338E+01 9.243E+01
        6.000E-03 2.594E+01 2.774E+00 1.804E+03 0.000E+00 0.000E+00 5.469E+01 5.392E+01
        8.000E-03 1.811E+01 3.473E+00 7.586E+02 0.000E+00 0.000E+00 2.328E+01 2.274E+01
        1.000E-02 1.335E+01 3.949E+00 3.837E+02 0.000E+00 0.000E+00 1.197E+01 1.157E+01
        1.500E-02 7.460E+00 4.603E+00 1.090E+02 0.000E+00 0.000E+00 3.613E+00 3.390E+00
        2.000E-02 4.877E+00 4.926E+00 4.401E+01 0.000E+00 0.000E+00 1.606E+00 1.460E+00
        3.000E-02 2.590E+00 5.214E+00 1.204E+01 0.000E+00 0.000E+00 5.922E-01 5.149E-01
        4.000E-02 1.596E+00 5.287E+00 4.753E+00 0.000E+00 0.000E+00 3.472E-01 2.996E-01
        5.000E-02 1.078E+00 5.264E+00 2.301E+00 0.000E+00 0.000E+00 2.579E-01 2.258E-01
        6.000E-02 7.754E-01 5.198E+00 1.269E+00 0.000E+00 0.000E+00 2.161E-01 1.930E-01
        8.000E-02 4.563E-01 5.017E+00 4.952E-01 0.000E+00 0.000E+00 1.781E-01 1.645E-01
        1.000E-01 2.998E-01 4.823E+00 2.386E-01 0.000E+00 0.000E+00 1.600E-01 1.511E-01
        1.500E-01 1.376E-01 4.388E+00 6.378E-02 0.000E+00 0.000E+00 1.370E-01 1.329E-01
        2.000E-01 7.840E-02 4.038E+00 2.536E-02 0.000E+00 0.000E+00 1.236E-01 1.213E-01
        3.000E-01 3.519E-02 3.523E+00 7.201E-03 0.000E+00 0.000E+00 1.064E-01 1.054E-01
        4.000E-01 1.987E-02 3.161E+00 3.099E-03 0.000E+00 0.000E+00 9.502E-02 9.442E-02
        5.000E-01 1.274E-02 2.889E+00 1.674E-03 0.000E+00 0.000E+00 8.665E-02 8.627E-02
        6.000E-01 8.853E-03 2.673E+00 1.043E-03 0.000E+00 0.000E+00 8.006E-02 7.980E-02
        8.000E-01 4.985E-03 2.350E+00 5.271E-04 0.000E+00 0.000E+00 7.029E-02 7.015E-02
        1.000E+00 3.191E-03 2.113E+00 3.277E-04 0.000E+00 0.000E+00 6.316E-02 6.307E-02
        1.022E+00 3.056E-03 2.091E+00 3.074E-04 0.000E+00 0.000E+00 6.250E-02 6.241E-02
        1.250E+00 2.043E-03 1.889E+00 2.086E-04 8.090E-04 0.000E+00 5.646E-02 5.640E-02
        1.500E+00 1.419E-03 1.718E+00 1.512E-04 4.464E-03 0.000E+00 5.145E-02 5.141E-02
        2.000E+00 7.983E-04 1.466E+00 9.481E-05 1.775E-02 0.000E+00 4.431E-02 4.428E-02
        2.044E+00 7.643E-04 1.448E+00 9.169E-05 1.913E-02 0.000E+00 4.381E-02 4.379E-02
        3.000E+00 3.549E-04 1.153E+00 5.274E-05 5.068E-02 4.035E-04 3.595E-02 3.593E-02
        4.000E+00 1.996E-04 9.620E-01 3.611E-05 8.214E-02 1.647E-03 3.122E-02 3.121E-02
        5.000E+00 1.278E-04 8.308E-01 2.733E-05 1.102E-01 3.283E-03 2.818E-02 2.818E-02
        6.000E+00 8.872E-05 7.343E-01 2.195E-05 1.353E-01 5.042E-03 2.610E-02 2.610E-02
        7.000E+00 6.518E-05 6.600E-01 1.832E-05 1.576E-01 6.798E-03 2.460E-02 2.460E-02
        8.000E+00 4.991E-05 6.006E-01 1.571E-05 1.778E-01 8.503E-03 2.349E-02 2.348E-02
        9.000E+00 3.943E-05 5.521E-01 1.374E-05 1.961E-01 1.014E-02 2.263E-02 2.263E-02
        1.000E+01 3.194E-05 5.116E-01 1.221E-05 2.127E-01 1.170E-02 2.197E-02 2.196E-02
        1.100E+01 2.640E-05 4.771E-01 1.099E-05 2.277E-01 1.317E-02 2.143E-02 2.143E-02
        1.200E+01 2.218E-05 4.475E-01 9.985E-06 2.416E-01 1.457E-02 2.100E-02 2.100E-02
        1.300E+01 1.890E-05 4.216E-01 9.149E-06 2.544E-01 1.589E-02 2.065E-02 2.065E-02
        1.400E+01 1.630E-05 3.988E-01 8.442E-06 2.664E-01 1.715E-02 2.036E-02 2.036E-02
        1.500E+01 1.419E-05 3.786E-01 7.836E-06 2.775E-01 1.835E-02 2.013E-02 2.013E-02
        1.600E+01 1.248E-05 3.606E-01 7.311E-06 2.880E-01 1.949E-02 1.994E-02 1.994E-02
 
        Ne                                                                      
 
        Constituents (Atomic Number:Fraction by Weight)
          10:1.00000
 
        Cross Sections and Attenuation Coefficients
        (Note that 1 b(arn) = 10**(-24) cm2)
 
         PHOTON       SCATTERING       PHOTO-     PAIR PRODUCTION    TOTAL ATTENUATION
         ENERGY   COHERENT  INCOHER.  ELECTRIC     IN        IN        WITH    WITHOUT
                                     ABSORPTION  NUCLEAR  ELECTRON   COHERENT  COHERENT
                                                  FIELD     FIELD     SCATT.    SCATT.
          (MeV)   (b/atom)  (b/atom)  (b/atom)  (b/atom)  (b/atom)    (cm2/g)   (cm2/g)
 
        1.800E+01 9.858E-06 3.295E-01 6.446E-06 3.073E-01 2.161E-02 1.965E-02 1.965E-02
        2.000E+01 7.985E-06 3.039E-01 5.764E-06 3.245E-01 2.355E-02 1.946E-02 1.946E-02
        2.200E+01 6.599E-06 2.823E-01 5.212E-06 3.401E-01 2.533E-02 1.933E-02 1.933E-02
        2.400E+01 5.545E-06 2.638E-01 4.756E-06 3.543E-01 2.698E-02 1.925E-02 1.925E-02
        2.600E+01 4.725E-06 2.477E-01 4.374E-06 3.673E-01 2.852E-02 1.920E-02 1.920E-02
        2.800E+01 4.074E-06 2.336E-01 4.048E-06 3.793E-01 2.994E-02 1.918E-02 1.918E-02
        3.000E+01 3.549E-06 2.212E-01 3.768E-06 3.904E-01 3.128E-02 1.919E-02 1.919E-02
        4.000E+01 1.996E-06 1.758E-01 2.798E-06 4.361E-01 3.689E-02 1.936E-02 1.936E-02
        5.000E+01 1.278E-06 1.467E-01 2.225E-06 4.705E-01 4.124E-02 1.965E-02 1.965E-02
        6.000E+01 8.872E-07 1.264E-01 1.847E-06 4.977E-01 4.477E-02 1.996E-02 1.996E-02
        8.000E+01 4.990E-07 9.972E-02 1.378E-06 5.390E-01 5.021E-02 2.056E-02 2.056E-02
        1.000E+02 3.194E-07 8.276E-02 1.099E-06 5.690E-01 5.428E-02 2.107E-02 2.107E-02
        1.500E+02 1.419E-07 5.894E-02 7.298E-07 6.177E-01 6.121E-02 2.202E-02 2.202E-02
        2.000E+02 7.984E-08 4.621E-02 5.462E-07 6.473E-01 6.567E-02 2.266E-02 2.266E-02
        3.000E+02 3.548E-08 3.275E-02 3.634E-07 6.820E-01 7.123E-02 2.346E-02 2.346E-02
        4.000E+02 1.996E-08 2.565E-02 2.723E-07 7.021E-01 7.460E-02 2.394E-02 2.394E-02
        5.000E+02 1.277E-08 2.123E-02 2.177E-07 7.154E-01 7.691E-02 2.428E-02 2.428E-02
        6.000E+02 8.871E-09 1.818E-02 1.813E-07 7.249E-01 7.861E-02 2.452E-02 2.452E-02
        8.000E+02 4.990E-09 1.420E-02 1.359E-07 7.376E-01 8.094E-02 2.485E-02 2.485E-02
        1.000E+03 3.193E-09 1.168E-02 1.087E-07 7.459E-01 8.250E-02 2.507E-02 2.507E-02
        1.500E+03 1.419E-09 8.159E-03 7.245E-08 7.578E-01 8.480E-02 2.539E-02 2.539E-02
        2.000E+03 7.984E-10 6.314E-03 5.433E-08 7.643E-01 8.610E-02 2.557E-02 2.557E-02
        3.000E+03 3.548E-10 4.390E-03 3.621E-08 7.714E-01 8.751E-02 2.576E-02 2.576E-02
        4.000E+03 1.996E-10 3.389E-03 2.715E-08 7.752E-01 8.834E-02 2.587E-02 2.587E-02
        5.000E+03 1.277E-10 2.771E-03 2.172E-08 7.776E-01 8.884E-02 2.594E-02 2.594E-02
        6.000E+03 8.871E-11 2.350E-03 1.810E-08 7.793E-01 8.920E-02 2.599E-02 2.599E-02
        8.000E+03 4.990E-11 1.810E-03 1.358E-08 7.814E-01 8.967E-02 2.605E-02 2.605E-02
        1.000E+04 3.193E-11 1.478E-03 1.086E-08 7.828E-01 8.997E-02 2.609E-02 2.609E-02
        1.500E+04 1.419E-11 1.021E-03 7.240E-09 7.847E-01 9.037E-02 2.614E-02 2.614E-02
        2.000E+04 7.984E-12 7.853E-04 5.430E-09 7.857E-01 9.061E-02 2.617E-02 2.617E-02
        3.000E+04 3.548E-12 5.416E-04 3.620E-09 7.868E-01 9.082E-02 2.621E-02 2.621E-02
        4.000E+04 1.996E-12 4.158E-04 2.715E-09 7.874E-01 9.097E-02 2.623E-02 2.623E-02
        5.000E+04 1.277E-12 3.386E-04 2.172E-09 7.877E-01 9.106E-02 2.623E-02 2.623E-02
        6.000E+04 8.871E-13 2.862E-04 1.810E-09 7.880E-01 9.111E-02 2.624E-02 2.624E-02
        8.000E+04 4.990E-13 2.195E-04 1.357E-09 7.883E-01 9.117E-02 2.625E-02 2.625E-02
        1.000E+05 3.193E-13 1.785E-04 1.086E-09 7.885E-01 9.121E-02 2.626E-02 2.626E-02
