        O                                                                       
 
        Constituents (Atomic Number:Fraction by Weight)
           8:1.00000
 
        Cross Sections and Attenuation Coefficients
        (Note that 1 b(arn) = 10**(-24) cm2)
 
         PHOTON       SCATTERING       PHOTO-     PAIR PRODUCTION    TOTAL ATTENUATION
         ENERGY   COHERENT  INCOHER.  ELECTRIC     IN        IN        WITH    WITHOUT
                                     ABSORPTION  NUCLEAR  ELECTRON   COHERENT  COHERENT
                                                  FIELD     FIELD     SCATT.    SCATT.
          (MeV)   (b/atom)  (b/atom)  (b/atom)  (b/atom)  (b/atom)    (cm2/g)   (cm2/g)
 
        1.000E-03 3.989E+01 2.262E-01 1.219E+05 0.000E+00 0.000E+00 4.590E+03 4.588E+03
        1.500E-03 3.698E+01 4.697E-01 4.111E+04 0.000E+00 0.000E+00 1.549E+03 1.547E+03
        2.000E-03 3.356E+01 7.560E-01 1.843E+04 0.000E+00 0.000E+00 6.950E+02 6.937E+02
        3.000E-03 2.663E+01 1.352E+00 5.739E+03 0.000E+00 0.000E+00 2.171E+02 2.161E+02
        4.000E-03 2.081E+01 1.886E+00 2.452E+03 0.000E+00 0.000E+00 9.315E+01 9.236E+01
        5.000E-03 1.642E+01 2.323E+00 1.254E+03 0.000E+00 0.000E+00 4.791E+01 4.729E+01
        6.000E-03 1.323E+01 2.665E+00 7.199E+02 0.000E+00 0.000E+00 2.770E+01 2.720E+01
        8.000E-03 9.157E+00 3.139E+00 2.967E+02 0.000E+00 0.000E+00 1.163E+01 1.129E+01
        1.000E-02 6.814E+00 3.439E+00 1.479E+02 0.000E+00 0.000E+00 5.953E+00 5.696E+00
        1.500E-02 3.948E+00 3.864E+00 4.096E+01 0.000E+00 0.000E+00 1.836E+00 1.687E+00
        2.000E-02 2.627E+00 4.092E+00 1.627E+01 0.000E+00 0.000E+00 8.653E-01 7.664E-01
        3.000E-02 1.394E+00 4.286E+00 4.360E+00 0.000E+00 0.000E+00 3.779E-01 3.254E-01
        4.000E-02 8.541E-01 4.315E+00 1.699E+00 0.000E+00 0.000E+00 2.585E-01 2.264E-01
        5.000E-02 5.755E-01 4.275E+00 8.151E-01 0.000E+00 0.000E+00 2.133E-01 1.916E-01
        6.000E-02 4.138E-01 4.207E+00 4.465E-01 0.000E+00 0.000E+00 1.907E-01 1.752E-01
        8.000E-02 2.428E-01 4.044E+00 1.726E-01 0.000E+00 0.000E+00 1.679E-01 1.587E-01
        1.000E-01 1.591E-01 3.880E+00 8.264E-02 0.000E+00 0.000E+00 1.551E-01 1.492E-01
        1.500E-01 7.264E-02 3.521E+00 2.186E-02 0.000E+00 0.000E+00 1.361E-01 1.334E-01
        2.000E-01 4.128E-02 3.236E+00 8.637E-03 0.000E+00 0.000E+00 1.237E-01 1.221E-01
        3.000E-01 1.849E-02 2.821E+00 2.441E-03 0.000E+00 0.000E+00 1.070E-01 1.063E-01
        4.000E-01 1.043E-02 2.530E+00 1.045E-03 0.000E+00 0.000E+00 9.566E-02 9.527E-02
        5.000E-01 6.684E-03 2.312E+00 5.634E-04 0.000E+00 0.000E+00 8.730E-02 8.704E-02
        6.000E-01 4.645E-03 2.139E+00 3.509E-04 0.000E+00 0.000E+00 8.070E-02 8.052E-02
        8.000E-01 2.615E-03 1.880E+00 1.771E-04 0.000E+00 0.000E+00 7.087E-02 7.077E-02
        1.000E+00 1.674E-03 1.691E+00 1.101E-04 0.000E+00 0.000E+00 6.372E-02 6.365E-02
        1.022E+00 1.603E-03 1.673E+00 1.026E-04 0.000E+00 0.000E+00 6.304E-02 6.298E-02
        1.250E+00 1.072E-03 1.512E+00 6.966E-05 5.159E-04 0.000E+00 5.697E-02 5.693E-02
        1.500E+00 7.442E-04 1.374E+00 5.054E-05 2.850E-03 0.000E+00 5.185E-02 5.183E-02
        2.000E+00 4.187E-04 1.173E+00 3.179E-05 1.134E-02 0.000E+00 4.460E-02 4.458E-02
        2.044E+00 4.008E-04 1.158E+00 3.075E-05 1.222E-02 0.000E+00 4.406E-02 4.405E-02
        3.000E+00 1.861E-04 9.226E-01 1.776E-05 3.241E-02 3.228E-04 3.597E-02 3.596E-02
        4.000E+00 1.047E-04 7.696E-01 1.219E-05 5.256E-02 1.318E-03 3.100E-02 3.100E-02
        5.000E+00 6.699E-05 6.646E-01 9.242E-06 7.051E-02 2.626E-03 2.777E-02 2.777E-02
        6.000E+00 4.652E-05 5.874E-01 7.430E-06 8.664E-02 4.033E-03 2.552E-02 2.552E-02
        7.000E+00 3.418E-05 5.280E-01 6.207E-06 1.010E-01 5.438E-03 2.388E-02 2.388E-02
        8.000E+00 2.617E-05 4.805E-01 5.326E-06 1.139E-01 6.803E-03 2.263E-02 2.263E-02
        9.000E+00 2.068E-05 4.417E-01 4.663E-06 1.257E-01 8.111E-03 2.166E-02 2.166E-02
        1.000E+01 1.675E-05 4.093E-01 4.146E-06 1.363E-01 9.357E-03 2.089E-02 2.089E-02
        1.100E+01 1.384E-05 3.817E-01 3.732E-06 1.460E-01 1.054E-02 2.026E-02 2.026E-02
        1.200E+01 1.163E-05 3.580E-01 3.392E-06 1.549E-01 1.166E-02 1.974E-02 1.974E-02
        1.300E+01 9.911E-06 3.372E-01 3.109E-06 1.632E-01 1.272E-02 1.931E-02 1.931E-02
        1.400E+01 8.545E-06 3.190E-01 2.869E-06 1.709E-01 1.373E-02 1.896E-02 1.896E-02
        1.500E+01 7.444E-06 3.029E-01 2.664E-06 1.781E-01 1.468E-02 1.866E-02 1.866E-02
        1.600E+01 6.542E-06 2.885E-01 2.486E-06 1.849E-01 1.560E-02 1.841E-02 1.841E-02
 
        O                                                                       
 
        Constituents (Atomic Number:Fraction by Weight)
           8:1.00000
 
        Cross Sections and Attenuation Coefficients
        (Note that 1 b(arn) = 10**(-24) cm2)
 
         PHOTON       SCATTERING       PHOTO-     PAIR PRODUCTION    TOTAL ATTENUATION
         ENERGY   COHERENT  INCOHER.  ELECTRIC     IN        IN        WITH    WITHOUT
                                     ABSORPTION  NUCLEAR  ELECTRON   COHERENT  COHERENT
                                                  FIELD     FIELD     SCATT.    SCATT.
          (MeV)   (b/atom)  (b/atom)  (b/atom)  (b/atom)  (b/atom)    (cm2/g)   (cm2/g)
 
        1.800E+01 5.169E-06 2.636E-01 2.193E-06 1.973E-01 1.730E-02 1.800E-02 1.800E-02
        2.000E+01 4.187E-06 2.431E-01 1.961E-06 2.084E-01 1.885E-02 1.770E-02 1.770E-02
        2.200E+01 3.461E-06 2.258E-01 1.774E-06 2.185E-01 2.029E-02 1.749E-02 1.749E-02
        2.400E+01 2.908E-06 2.110E-01 1.619E-06 2.277E-01 2.161E-02 1.733E-02 1.733E-02
        2.600E+01 2.478E-06 1.981E-01 1.489E-06 2.361E-01 2.284E-02 1.720E-02 1.720E-02
        2.800E+01 2.136E-06 1.869E-01 1.378E-06 2.439E-01 2.399E-02 1.712E-02 1.712E-02
        3.000E+01 1.861E-06 1.770E-01 1.283E-06 2.511E-01 2.506E-02 1.706E-02 1.706E-02
        4.000E+01 1.047E-06 1.406E-01 9.531E-07 2.804E-01 2.958E-02 1.696E-02 1.696E-02
        5.000E+01 6.699E-07 1.174E-01 7.581E-07 3.028E-01 3.309E-02 1.706E-02 1.706E-02
        6.000E+01 4.652E-07 1.011E-01 6.294E-07 3.204E-01 3.594E-02 1.722E-02 1.722E-02
        8.000E+01 2.617E-07 7.977E-02 4.698E-07 3.472E-01 4.036E-02 1.759E-02 1.759E-02
        1.000E+02 1.675E-07 6.621E-02 3.747E-07 3.668E-01 4.368E-02 1.794E-02 1.794E-02
        1.500E+02 7.443E-08 4.715E-02 2.488E-07 3.993E-01 4.942E-02 1.866E-02 1.866E-02
        2.000E+02 4.186E-08 3.697E-02 1.863E-07 4.193E-01 5.316E-02 1.917E-02 1.917E-02
        3.000E+02 1.861E-08 2.620E-02 1.239E-07 4.433E-01 5.791E-02 1.985E-02 1.985E-02
        4.000E+02 1.047E-08 2.052E-02 9.287E-08 4.573E-01 6.084E-02 2.028E-02 2.028E-02
        5.000E+02 6.698E-09 1.699E-02 7.425E-08 4.666E-01 6.286E-02 2.057E-02 2.057E-02
        6.000E+02 4.652E-09 1.455E-02 6.185E-08 4.733E-01 6.436E-02 2.079E-02 2.079E-02
        8.000E+02 2.617E-09 1.136E-02 4.637E-08 4.823E-01 6.645E-02 2.108E-02 2.108E-02
        1.000E+03 1.675E-09 9.346E-03 3.708E-08 4.882E-01 6.784E-02 2.128E-02 2.128E-02
        1.500E+03 7.443E-10 6.527E-03 2.471E-08 4.968E-01 6.993E-02 2.158E-02 2.158E-02
        2.000E+03 4.186E-10 5.052E-03 1.853E-08 5.015E-01 7.111E-02 2.174E-02 2.174E-02
        3.000E+03 1.861E-10 3.512E-03 1.235E-08 5.066E-01 7.241E-02 2.193E-02 2.193E-02
        4.000E+03 1.047E-10 2.711E-03 9.262E-09 5.093E-01 7.317E-02 2.203E-02 2.203E-02
        5.000E+03 6.698E-11 2.217E-03 7.409E-09 5.110E-01 7.364E-02 2.209E-02 2.209E-02
        6.000E+03 4.652E-11 1.880E-03 6.174E-09 5.123E-01 7.396E-02 2.214E-02 2.214E-02
        8.000E+03 2.617E-11 1.448E-03 4.630E-09 5.138E-01 7.440E-02 2.219E-02 2.219E-02
        1.000E+04 1.675E-11 1.182E-03 3.704E-09 5.148E-01 7.468E-02 2.223E-02 2.223E-02
        1.500E+04 7.443E-12 8.172E-04 2.469E-09 5.162E-01 7.505E-02 2.229E-02 2.229E-02
        2.000E+04 4.186E-12 6.282E-04 1.852E-09 5.170E-01 7.527E-02 2.232E-02 2.232E-02
        3.000E+04 1.861E-12 4.333E-04 1.235E-09 5.178E-01 7.548E-02 2.235E-02 2.235E-02
        4.000E+04 1.047E-12 3.326E-04 9.260E-10 5.182E-01 7.562E-02 2.236E-02 2.236E-02
        5.000E+04 6.698E-13 2.709E-04 7.408E-10 5.184E-01 7.570E-02 2.237E-02 2.237E-02
        6.000E+04 4.652E-13 2.290E-04 6.173E-10 5.186E-01 7.575E-02 2.238E-02 2.238E-02
        8.000E+04 2.617E-13 1.756E-04 4.630E-10 5.188E-01 7.580E-02 2.239E-02 2.239E-02
        1.000E+05 1.675E-13 1.428E-04 3.704E-10 5.190E-01 7.585E-02 2.240E-02 2.240E-02
